# Begin of measurement: 22.11.2018 12:00:13
# R-Sample[Ohm]	I-Coil[A]	U-Magnetometer[V]
# Kei2000	HP E3631A +6V : I	Kei2000
7.00203312E+2	-1.18239000E-2	-6.80535951E-2
7.00496006E+2	-1.18472200E-2	-6.80881187E-2
7.00383476E+2	-1.16956300E-2	-6.80326215E-2
6.99948423E+2	-1.18550000E-2	-6.79879465E-2
6.99807335E+2	-1.17267300E-2	-6.80049400E-2
6.99670175E+2	-1.18433400E-2	-6.80219782E-2
7.00147670E+2	-1.16878600E-2	-6.79976051E-2
6.99948774E+2	-1.16995200E-2	-6.79528371E-2
7.00754401E+2	-1.18705400E-2	-6.79889707E-2
7.01011881E+2	-1.18433400E-2	-6.79683996E-2
7.01872895E+2	-1.18472200E-2	-6.80175466E-2
7.01667694E+2	-1.17111800E-2	-6.80098995E-2
7.01775451E+2	-1.18588800E-2	-6.79720666E-2
7.01399587E+2	-1.17694900E-2	-6.79403156E-2
7.01769260E+2	-1.18239000E-2	-6.79859745E-2
7.01124812E+2	-6.86812400E-3	-6.79674158E-2
7.01698761E+2	-2.27382800E-3	-4.46392283E-2
7.01883968E+2	3.12894200E-3	-1.82870919E-2
7.01607396E+2	7.98366100E-3	4.34337090E-3
7.00492234E+2	1.24341400E-2	3.08357698E-2
6.99678773E+2	1.71567100E-2	5.57974211E-2
6.99783841E+2	2.18481800E-2	7.64116661E-2
6.99855754E+2	2.70799200E-2	1.04922108E-1
7.00745181E+2	3.16781100E-2	1.31061234E-1
7.01525005E+2	3.62413100E-2	1.54587284E-1
7.02733693E+2	4.10960300E-2	1.76357315E-1
7.01474797E+2	4.61878500E-2	2.05598128E-1
7.01112713E+2	5.09376200E-2	2.32116613E-1
7.00880550E+2	5.55941100E-2	2.52052814E-1
7.00912424E+2	6.06276200E-2	2.81206557E-1
7.00794266E+2	6.52296900E-2	3.05292053E-1
6.99991566E+2	6.96879500E-2	3.28237817E-1
7.00181096E+2	7.47875500E-2	3.53265697E-1
7.00139894E+2	7.99065700E-2	3.80129867E-1
7.00132239E+2	8.44658900E-2	4.01924495E-1
7.01438416E+2	8.92428700E-2	4.28015860E-1
7.02217791E+2	9.38721500E-2	4.52275183E-1
7.02256381E+2	9.87657400E-2	4.76975534E-1
7.03223439E+2	1.03659300E-1	5.00511824E-1
7.04391870E+2	1.08459600E-1	5.23414880E-1
7.04427353E+2	1.13364900E-1	5.52134303E-1
7.03294631E+2	1.18040800E-1	5.76741413E-1
7.03275583E+2	1.23058800E-1	6.02712795E-1
7.02499181E+2	1.27462600E-1	6.25597605E-1
7.02345174E+2	1.32274600E-1	6.50188750E-1
7.02459318E+2	1.37175900E-1	6.73630234E-1
7.02041667E+2	1.41964600E-1	7.00273131E-1
7.00771468E+2	1.46628800E-1	7.24176214E-1
7.00653130E+2	1.51471900E-1	7.51040564E-1
7.00170817E+2	1.56252800E-1	7.74873169E-1
7.00164243E+2	1.61220200E-1	7.96201635E-1
6.99194257E+2	1.65927200E-1	8.26067454E-1
6.98468530E+2	1.70910200E-1	8.49067418E-1
7.00133595E+2	1.75551100E-1	8.73031131E-1
7.00061097E+2	1.80767300E-1	8.98215842E-1
7.00876451E+2	1.85800800E-1	9.26128426E-1
7.00866139E+2	1.90605000E-1	9.53441941E-1
7.00687776E+2	1.95560800E-1	9.75964116E-1
7.02026285E+2	2.00213400E-1	9.98002108E-1
7.03032367E+2	2.05087600E-1	1.02411905E+0
7.03140906E+2	2.09938400E-1	1.05026909E+0
7.03032925E+2	2.15119600E-1	1.07851452E+0
7.01940593E+2	2.19403000E-1	1.09944279E+0
7.01114838E+2	2.24580300E-1	1.12622418E+0
7.01032478E+2	2.29442800E-1	1.15400940E+0
7.01334448E+2	2.34002100E-1	1.17514038E+0
7.00908815E+2	2.39008400E-1	1.19967384E+0
7.00665834E+2	2.43769800E-1	1.22578582E+0
7.00302084E+2	2.48185300E-1	1.25008203E+0
7.00213060E+2	2.53059500E-1	1.27315136E+0
7.00892649E+2	2.57945300E-1	1.29653739E+0
7.00036588E+2	2.62803900E-1	1.32287381E+0
7.00465587E+2	2.67483700E-1	1.34636729E+0
7.00979046E+2	2.72241300E-1	1.36863954E+0
7.00964747E+2	2.77422500E-1	1.39678512E+0
7.01742330E+2	2.81760200E-1	1.42194036E+0
7.01421988E+2	2.86719900E-1	1.44604638E+0
7.01657584E+2	2.91329700E-1	1.47085482E+0
7.01120829E+2	2.96203900E-1	1.49546694E+0
7.01009245E+2	3.01218000E-1	1.52201231E+0
7.01171533E+2	3.05820100E-1	1.54818963E+0
7.00380540E+2	3.10632000E-1	1.56656949E+0
7.00054513E+2	3.15323500E-1	1.59485472E+0
7.00820334E+2	3.20084900E-1	1.61807230E+0
7.01356008E+2	3.24834700E-1	1.64484900E+0
7.00517464E+2	3.29642800E-1	1.66442015E+0
7.00237108E+2	3.34676300E-1	1.69503791E+0
7.00532639E+2	3.39550400E-1	1.72173966E+0
7.00492472E+2	3.44490700E-1	1.74699490E+0
7.00184424E+2	3.48824600E-1	1.77024105E+0
7.01108705E+2	3.53636500E-1	1.79260202E+0
7.00663045E+2	3.58479600E-1	1.81981671E+0
7.00024748E+2	3.63089400E-1	1.84347942E+0
6.99928565E+2	3.68056900E-1	1.87619176E+0
7.00219187E+2	3.72950400E-1	1.90961143E+0
7.00250122E+2	3.77956700E-1	1.96500618E+0
7.00355086E+2	3.83223500E-1	2.03681776E+0
7.01225410E+2	3.87639000E-1	2.10440134E+0
7.00231153E+2	3.92427600E-1	2.17922990E+0
7.00738188E+2	3.97430000E-1	2.24117738E+0
7.01207488E+2	4.02253700E-1	2.27054721E+0
7.01179075E+2	4.07092900E-1	2.29296788E+0
7.01024983E+2	4.11648200E-1	2.32247518E+0
7.00947622E+2	4.16716800E-1	2.34932571E+0
7.01627646E+2	4.21330500E-1	2.37307157E+0
7.01669388E+2	4.26344600E-1	2.40279898E+0
7.01829604E+2	4.30806700E-1	2.42717999E+0
7.00572778E+2	4.35610900E-1	2.45586820E+0
6.99305956E+2	4.40473400E-1	2.48096075E+0
6.99446494E+2	4.45518500E-1	2.51278624E+0
6.99471710E+2	4.50136200E-1	2.54114679E+0
6.99260070E+2	4.54683800E-1	2.56229397E+0
7.01417420E+2	4.59398700E-1	2.58939480E+0
7.01347084E+2	4.64708100E-1	2.62077860E+0
7.00776601E+2	4.69259600E-1	2.64770296E+0
7.00647231E+2	4.73881100E-1	2.66972008E+0
7.00363273E+2	4.78529900E-1	2.69935488E+0
7.01168901E+2	4.83613900E-1	2.72816817E+0
7.00887960E+2	4.88379200E-1	2.75285748E+0
6.99608191E+2	4.92919100E-1	2.77799586E+0
7.00349452E+2	4.97746700E-1	2.80591521E+0
7.00539793E+2	5.02706300E-1	2.83604000E+0
6.99967779E+2	5.07327800E-1	2.85714688E+0
6.99808779E+2	5.12369100E-1	2.88840824E+0
7.00488639E+2	5.16924500E-1	2.91751561E+0
7.01639465E+2	5.21689800E-1	2.93907394E+0
7.01124595E+2	5.26688400E-1	2.96826467E+0
7.01461808E+2	5.31375900E-1	2.99311009E+0
7.00869351E+2	5.36362800E-1	3.02458351E+0
7.00788027E+2	5.41221400E-1	3.05252954E+0
6.99296505E+2	5.45722400E-1	3.07541299E+0
7.00256270E+2	5.50503300E-1	3.10196292E+0
7.00302111E+2	5.55867200E-1	3.13268500E+0
7.00433192E+2	5.60411000E-1	3.15871314E+0
7.02355289E+2	5.64962500E-1	3.18345097E+0
7.02355751E+2	5.69615100E-1	3.21055033E+0
7.01750866E+2	5.74675800E-1	3.23657131E+0
7.00558837E+2	5.79254600E-1	3.25969783E+0
7.00475577E+2	5.84062700E-1	3.29098258E+0
7.00219943E+2	5.88967900E-1	3.31723651E+0
7.00690324E+2	5.93709900E-1	3.34339008E+0
7.02057068E+2	5.98471400E-1	3.36866384E+0
7.01387445E+2	6.03423300E-1	3.39558516E+0
7.01815153E+2	6.07912600E-1	3.42460336E+0
7.02291073E+2	6.12915000E-1	3.45096185E+0
7.02173635E+2	6.17715300E-1	3.47624889E+0
7.03428751E+2	6.22558400E-1	3.50740587E+0
7.03484948E+2	6.27319800E-1	3.53308505E+0
7.01197210E+2	6.31910200E-1	3.55534920E+0
6.99996175E+2	6.36881500E-1	3.58295421E+0
6.99495519E+2	6.41576900E-1	3.61170575E+0
6.99585759E+2	6.46567600E-1	3.63879380E+0
6.99902408E+2	6.51725500E-1	3.66751493E+0
6.99865709E+2	6.56980700E-1	3.69226474E+0
7.00565922E+2	6.61442800E-1	3.72620742E+0
7.00165517E+2	6.66075900E-1	3.74718368E+0
6.99365788E+2	6.70604200E-1	3.76921327E+0
6.99167825E+2	6.75210100E-1	3.80107182E+0
7.01162285E+2	6.80014300E-1	3.82659860E+0
7.01244465E+2	6.84989500E-1	3.85205964E+0
7.01952963E+2	6.89603300E-1	3.88015939E+0
7.02088098E+2	6.94345200E-1	3.90541088E+0
7.02039060E+2	6.99336000E-1	3.93330290E+0
7.01873621E+2	7.03460000E-1	3.95762738E+0
7.01073576E+2	7.08268100E-1	3.98156374E+0
7.00908060E+2	7.12714700E-1	4.00732191E+0
7.00596170E+2	7.17452800E-1	4.03285468E+0
7.00586489E+2	7.22132600E-1	4.05839832E+0
7.00213507E+2	7.26932900E-1	4.08671268E+0
7.00601439E+2	7.31748700E-1	4.11300574E+0
7.01141571E+2	7.35927100E-1	4.13658358E+0
7.00720273E+2	7.40572000E-1	4.16375347E+0
6.99769694E+2	7.45290700E-1	4.18680307E+0
6.99833618E+2	7.49826600E-1	4.21409656E+0
7.01219098E+2	7.54646300E-1	4.24070602E+0
7.01214100E+2	7.59050200E-1	4.26401947E+0
7.00299139E+2	7.63803900E-1	4.29127418E+0
6.99095898E+2	7.68437100E-1	4.31808881E+0
6.99216442E+2	7.72992400E-1	4.34129360E+0
6.99373056E+2	7.77442900E-1	4.36532114E+0
7.00362991E+2	7.82150000E-1	4.39385874E+0
7.01080433E+2	7.86767600E-1	4.41722679E+0
7.01439365E+2	7.91385200E-1	4.44191734E+0
7.00765855E+2	7.96150500E-1	4.47125900E+0
7.01187514E+2	8.00814700E-1	4.49447662E+0
7.01474534E+2	8.05308000E-1	4.52172834E+0
7.01836033E+2	8.09925700E-1	4.54540590E+0
7.02801426E+2	8.14477200E-1	4.57075045E+0
7.02781294E+2	8.19184200E-1	4.59587602E+0
7.03090022E+2	8.23735700E-1	4.62502052E+0
7.01939871E+2	8.28578800E-1	4.64740469E+0
7.01061746E+2	8.33169300E-1	4.67465417E+0
7.01343452E+2	8.37720800E-1	4.70035939E+0
7.00956826E+2	8.42295600E-1	4.72475457E+0
7.01084846E+2	8.46983200E-1	4.75295705E+0
7.01118708E+2	8.51806800E-1	4.77875447E+0
7.01069671E+2	8.56350600E-1	4.79906690E+0
7.00657873E+2	8.60995400E-1	4.82815013E+0
7.00736631E+2	8.65531300E-1	4.85368437E+0
7.01158605E+2	8.70261800E-1	4.87630780E+0
7.01600482E+2	8.75058200E-1	4.90536187E+0
7.01238127E+2	8.79582500E-1	4.93084755E+0
7.01566620E+2	8.84056300E-1	4.95268958E+0
7.01510648E+2	8.88607900E-1	4.98348768E+0
7.00938634E+2	8.93268200E-1	5.00811362E+0
7.01403657E+2	8.97913100E-1	5.03101766E+0
7.00211538E+2	9.02759900E-1	5.05868291E+0
7.00973532E+2	9.07432000E-1	5.08441660E+0
7.01567565E+2	9.11886400E-1	5.10894702E+0
7.01439906E+2	9.16663400E-1	5.13503298E+0
7.02833848E+2	9.21246000E-1	5.16309525E+0
7.02478473E+2	9.26061900E-1	5.18860065E+0
7.01066696E+2	9.30559000E-1	5.21153519E+0
7.01480913E+2	9.35129900E-1	5.23987418E+0
7.00874542E+2	9.39786400E-1	5.26269403E+0
6.99927565E+2	9.44388500E-1	5.28876099E+0
6.99357083E+2	9.49235400E-1	5.31399722E+0
6.99973361E+2	9.53919200E-1	5.33956639E+0
6.99870828E+2	9.58474500E-1	5.36554699E+0
7.00022398E+2	9.62866800E-1	5.39331656E+0
6.99676893E+2	9.67620500E-1	5.41778750E+0
7.00403079E+2	9.72129200E-1	5.44291851E+0
7.01560164E+2	9.76863500E-1	5.46605786E+0
7.01488837E+2	9.81628800E-1	5.49188901E+0
7.01548862E+2	9.84633400E-1	5.51810689E+0
7.02348546E+2	9.84676100E-1	5.53788187E+0
7.02363361E+2	9.84765400E-1	5.53931600E+0
7.02532582E+2	9.84660500E-1	5.53929878E+0
7.00305680E+2	9.84575100E-1	5.53926346E+0
7.00249933E+2	9.84691600E-1	5.53925370E+0
7.00491833E+2	9.84683800E-1	5.53927025E+0
7.00456665E+2	9.84567300E-1	5.53928603E+0
6.99938237E+2	9.84718800E-1	5.53922199E+0
6.99450294E+2	9.84648900E-1	5.53921493E+0
6.99894468E+2	9.84629400E-1	5.53923635E+0
7.00836491E+2	9.84757700E-1	5.53921341E+0
