# Begin of measurement: 22.11.2018 12:06:49
# R-Sample[Ohm]	I-Coil[A]	U-Magnetometer[V]
# Kei2000	HP E3631A +6V : I	Kei2000
5.49613420E+2	-1.17228400E-2	-6.82817526E-2
5.50193088E+2	-1.18316800E-2	-6.82618971E-2
5.50201553E+2	-1.17656000E-2	-6.82861351E-2
5.49586492E+2	-1.18744300E-2	-6.83093447E-2
5.49533222E+2	-1.17539400E-2	-6.82971809E-2
5.49140650E+2	-1.18977500E-2	-6.83266959E-2
5.49265726E+2	-1.16995200E-2	-6.83428844E-2
5.49964763E+2	-1.18899800E-2	-6.83244152E-2
5.50607157E+2	-1.18938700E-2	-6.83364895E-2
5.50572620E+2	-1.17306200E-2	-6.82782198E-2
5.50405694E+2	-1.18511100E-2	-6.83544668E-2
5.49344748E+2	-7.08967700E-3	-6.83850998E-2
5.49488078E+2	-1.66747300E-3	-4.28908997E-2
5.49578993E+2	2.93459800E-3	-1.90299965E-2
5.50510704E+2	7.26070000E-3	5.78069885E-3
5.50187760E+2	1.18277900E-2	2.75434959E-2
5.50537911E+2	1.68302100E-2	5.24969308E-2
5.50422050E+2	2.13467700E-2	7.66636943E-2
5.50072349E+2	2.61159800E-2	9.87092617E-2
5.50015341E+2	3.10834100E-2	1.26563318E-1
5.49986612E+2	3.55105700E-2	1.53385551E-1
5.49843643E+2	4.04857900E-2	1.96871760E-1
5.50067756E+2	4.55814900E-2	2.28191474E-1
5.49791633E+2	5.01330400E-2	2.55083515E-1
5.48391118E+2	5.47934100E-2	2.79834055E-1
5.48051459E+2	5.96947700E-2	3.08075922E-1
5.48925216E+2	6.43201600E-2	3.34807866E-1
5.48836417E+2	6.90427300E-2	3.61729154E-1
5.48845288E+2	7.45038000E-2	3.92123524E-1
5.48678238E+2	7.90514500E-2	4.21365819E-1
5.48518022E+2	8.42054700E-2	4.49216968E-1
5.48064933E+2	8.87881000E-2	4.71849082E-1
5.48739298E+2	9.35884000E-2	5.03828325E-1
5.48165439E+2	9.82876400E-2	5.31672229E-1
5.49040142E+2	1.02905300E-1	5.58047309E-1
5.49047797E+2	1.08137000E-1	5.85938929E-1
5.48372981E+2	1.12774100E-1	6.14507922E-1
5.48425232E+2	1.17547200E-1	6.41744262E-1
5.48497881E+2	1.22211400E-1	6.65650088E-1
5.48576953E+2	1.26961200E-1	6.94992377E-1
5.49026755E+2	1.31711000E-1	7.23527562E-1
5.49842108E+2	1.36620100E-1	7.49677521E-1
5.49920280E+2	1.41669200E-1	7.78682623E-1
5.49419910E+2	1.46197400E-1	8.06355927E-1
5.49095246E+2	1.50861600E-1	8.36732992E-1
5.48568882E+2	1.55712500E-1	8.57440452E-1
5.49554312E+2	1.61022000E-1	8.88991504E-1
5.49356136E+2	1.65635700E-1	9.21335305E-1
5.48997925E+2	1.70323300E-1	9.46556461E-1
5.48400786E+2	1.74785400E-1	9.70281531E-1
5.48856261E+2	1.79550700E-1	9.99178320E-1
5.49593398E+2	1.84533700E-1	1.02481481E+0
5.48648985E+2	1.89392300E-1	1.05343187E+0
5.48886092E+2	1.94037200E-1	1.07958644E+0
5.49189322E+2	1.98604200E-1	1.10701150E+0
5.49195762E+2	2.04057600E-1	1.13753260E+0
5.49858509E+2	2.08375900E-1	1.16417895E+0
5.50465870E+2	2.13129500E-1	1.19152052E+0
5.51215975E+2	2.18019200E-1	1.21771775E+0
5.50933954E+2	2.22636800E-1	1.24589276E+0
5.50917076E+2	2.27573200E-1	1.26968441E+0
5.49355571E+2	2.32447300E-1	1.29851377E+0
5.49546902E+2	2.37309800E-1	1.32986116E+0
5.49664475E+2	2.42168500E-1	1.35946287E+0
5.50199248E+2	2.46618900E-1	1.38109594E+0
5.49433157E+2	2.52013900E-1	1.41149286E+0
5.49067291E+2	2.56627700E-1	1.44214893E+0
5.49042116E+2	2.61517400E-1	1.46937239E+0
5.48928902E+2	2.66135000E-1	1.49229438E+0
5.50026996E+2	2.70589400E-1	1.52121845E+0
5.48957811E+2	2.75755000E-1	1.54837934E+0
5.48821326E+2	2.80757400E-1	1.57884929E+0
5.49856289E+2	2.85176800E-1	1.60156740E+0
5.49872094E+2	2.90070400E-1	1.63118852E+0
5.48776161E+2	2.94653000E-1	1.65726247E+0
5.48206248E+2	2.99457200E-1	1.68346064E+0
5.48331154E+2	3.04203100E-1	1.71057436E+0
5.48704405E+2	3.09151100E-1	1.73569442E+0
5.49347249E+2	3.13811500E-1	1.76569888E+0
5.48167876E+2	3.18495200E-1	1.78872659E+0
5.48056517E+2	3.23307200E-1	1.81897960E+0
5.48572063E+2	3.28231800E-1	1.84767667E+0
5.49519353E+2	3.33121500E-1	1.87469246E+0
5.49541718E+2	3.37941300E-1	1.90050348E+0
5.50510397E+2	3.42407300E-1	1.92965196E+0
5.49122132E+2	3.47436900E-1	1.95438327E+0
5.48530036E+2	3.52287800E-1	1.98043427E+0
5.49335978E+2	3.56959800E-1	2.00887662E+0
5.49816445E+2	3.61717300E-1	2.03802719E+0
5.49637001E+2	3.66548800E-1	2.06552394E+0
5.49328687E+2	3.71244100E-1	2.08883875E+0
5.49045726E+2	3.76060000E-1	2.11977825E+0
5.48847461E+2	3.81093500E-1	2.14516351E+0
5.48807834E+2	3.85571100E-1	2.17389501E+0
5.48827693E+2	3.90289800E-1	2.19904902E+0
5.48670809E+2	3.95331100E-1	2.22591217E+0
5.48070609E+2	3.99976000E-1	2.25502201E+0
5.49006956E+2	4.04885100E-1	2.28199575E+0
5.48629991E+2	4.09685400E-1	2.30839132E+0
5.48181766E+2	4.14256400E-1	2.33604820E+0
5.49177146E+2	4.19188800E-1	2.36160217E+0
5.48550649E+2	4.23930800E-1	2.38651450E+0
5.47921674E+2	4.28805000E-1	2.41534278E+0
5.48870179E+2	4.33710200E-1	2.44450311E+0
5.49403015E+2	4.38393900E-1	2.47196863E+0
5.48181354E+2	4.43112600E-1	2.49454056E+0
5.47655626E+2	4.47994500E-1	2.52554835E+0
5.47695117E+2	4.52892000E-1	2.55402951E+0
5.47605733E+2	4.57618400E-1	2.57877844E+0
5.47379459E+2	4.62197200E-1	2.60484799E+0
5.47379323E+2	4.67028600E-1	2.63205263E+0
5.47581777E+2	4.72038800E-1	2.65983714E+0
5.48001138E+2	4.76858500E-1	2.68749225E+0
5.48186805E+2	4.81336200E-1	2.71388141E+0
5.48171585E+2	4.86719600E-1	2.74314459E+0
5.48455452E+2	4.91072800E-1	2.77101693E+0
5.48032308E+2	4.95966400E-1	2.79252358E+0
5.48461486E+2	5.00821200E-1	2.82041757E+0
5.48799343E+2	5.05330000E-1	2.84854437E+0
5.48709284E+2	5.10596700E-1	2.87836466E+0
5.48350848E+2	5.14965500E-1	2.90358042E+0
5.47462458E+2	5.19971800E-1	2.92900855E+0
5.47511270E+2	5.24674900E-1	2.95714586E+0
5.47528021E+2	5.29420900E-1	2.98288059E+0
5.48224630E+2	5.34162900E-1	3.00752192E+0
5.47751638E+2	5.39002000E-1	3.03758320E+0
5.47656716E+2	5.43794600E-1	3.06499448E+0
5.47559046E+2	5.49181700E-1	3.09402797E+0
5.48642301E+2	5.53321300E-1	3.11809349E+0
5.48734162E+2	5.58428700E-1	3.14680164E+0
5.48610645E+2	5.63077400E-1	3.17288501E+0
5.48857093E+2	5.68107000E-1	3.20119404E+0
5.49853464E+2	5.72794600E-1	3.22768521E+0
5.49781462E+2	5.77952500E-1	3.25571858E+0
5.49041156E+2	5.82158100E-1	3.28190964E+0
5.49038083E+2	5.87261600E-1	3.30501403E+0
5.49222495E+2	5.91887000E-1	3.33470531E+0
5.49559046E+2	5.96566800E-1	3.36193413E+0
5.49103166E+2	6.01184400E-1	3.38522850E+0
5.48598474E+2	6.06011900E-1	3.40985569E+0
5.48868426E+2	6.10866600E-1	3.44023195E+0
5.49024724E+2	6.15624200E-1	3.46633973E+0
5.49554916E+2	6.20681000E-1	3.49280635E+0
5.49325827E+2	6.25702900E-1	3.52115571E+0
5.49496895E+2	6.30623600E-1	3.54767130E+0
5.49876450E+2	6.35221900E-1	3.57638648E+0
5.48446397E+2	6.40049400E-1	3.60315678E+0
5.48366560E+2	6.45362800E-1	3.62822604E+0
5.47635053E+2	6.49673300E-1	3.66141964E+0
5.47294894E+2	6.54512500E-1	3.68384023E+0
5.47320378E+2	6.59573200E-1	3.71217983E+0
5.47573474E+2	6.64074200E-1	3.73770719E+0
5.47201979E+2	6.68672400E-1	3.76187668E+0
5.47301179E+2	6.73363900E-1	3.79150079E+0
5.48031065E+2	6.77919300E-1	3.81257544E+0
5.48599835E+2	6.82809000E-1	3.84302937E+0
5.49134247E+2	6.87434400E-1	3.86639108E+0
5.48932964E+2	6.91993700E-1	3.89014105E+0
5.48560955E+2	6.96743400E-1	3.91563031E+0
5.48479132E+2	7.01263900E-1	3.94159852E+0
5.49292863E+2	7.06037000E-1	3.96759142E+0
5.49551333E+2	7.10646800E-1	3.99363176E+0
5.50121229E+2	7.15015700E-1	4.01877748E+0
5.50017615E+2	7.20010300E-1	4.04866227E+0
5.49453574E+2	7.24418100E-1	4.07173228E+0
5.49111934E+2	7.28891800E-1	4.09607389E+0
5.49468614E+2	7.33622200E-1	4.12168268E+0
5.49313757E+2	7.38406900E-1	4.14985983E+0
5.49560970E+2	7.42935200E-1	4.17804727E+0
5.50034727E+2	7.47669400E-1	4.19924637E+0
5.50309363E+2	7.52158800E-1	4.22456882E+0
5.49984564E+2	7.56963000E-1	4.25263278E+0
5.49660478E+2	7.61887600E-1	4.27730984E+0
5.49323054E+2	7.66485800E-1	4.30826310E+0
5.49396317E+2	7.71371600E-1	4.33481625E+0
5.49945094E+2	7.75728800E-1	4.35862721E+0
5.50917420E+2	7.80704000E-1	4.38242105E+0
5.50866896E+2	7.85585900E-1	4.41145002E+0
5.49463096E+2	7.89927600E-1	4.44070975E+0
5.48443940E+2	7.94498600E-1	4.45935319E+0
5.47544112E+2	7.99279500E-1	4.48538271E+0
5.47279907E+2	8.03834800E-1	4.51363830E+0
5.47696919E+2	8.08405900E-1	4.53586627E+0
5.48961442E+2	8.13124600E-1	4.56197011E+0
5.49134446E+2	8.17975300E-1	4.59267666E+0
5.49689527E+2	8.22604700E-1	4.61358736E+0
5.50085923E+2	8.27284400E-1	4.64201834E+0
5.50995838E+2	8.31754400E-1	4.66715936E+0
5.51072793E+2	8.36620700E-1	4.69179398E+0
5.49450462E+2	8.40803100E-1	4.71837042E+0
5.49341175E+2	8.45859900E-1	4.74600176E+0
5.49173710E+2	8.50197600E-1	4.77290989E+0
5.48572249E+2	8.54780300E-1	4.79497812E+0
5.48594989E+2	8.59464000E-1	4.82042423E+0
5.48725259E+2	8.64062100E-1	4.84819594E+0
5.48676717E+2	8.68885800E-1	4.87188424E+0
5.48414150E+2	8.73375100E-1	4.90028043E+0
5.48756252E+2	8.78086000E-1	4.92286271E+0
5.48566137E+2	8.82859100E-1	4.94922687E+0
5.48536598E+2	8.87507800E-1	4.97428190E+0
5.49294942E+2	8.92001100E-1	4.99781404E+0
5.49720833E+2	8.96785800E-1	5.02379378E+0
5.50844639E+2	9.01255700E-1	5.05171540E+0
5.50235928E+2	9.05881200E-1	5.07382196E+0
5.50056033E+2	9.10903000E-1	5.10220535E+0
5.49879517E+2	9.15435100E-1	5.13205345E+0
5.48678305E+2	9.19714500E-1	5.15527139E+0
5.49971377E+2	9.24398200E-1	5.17698669E+0
5.48710861E+2	9.29093600E-1	5.20417025E+0
5.48673216E+2	9.34088300E-1	5.23163693E+0
5.48976626E+2	9.38433800E-1	5.25600828E+0
5.50209900E+2	9.42989300E-1	5.27910284E+0
5.50060574E+2	9.47618500E-1	5.30690380E+0
5.49354616E+2	9.52387700E-1	5.33002773E+0
5.49186745E+2	9.56966500E-1	5.35575504E+0
5.48556780E+2	9.61525800E-1	5.38132640E+0
5.48548449E+2	9.66069500E-1	5.40613243E+0
5.48768780E+2	9.70714400E-1	5.43160836E+0
5.48623919E+2	9.75370900E-1	5.45959236E+0
5.48972809E+2	9.80163400E-1	5.48241381E+0
5.48895740E+2	9.84765400E-1	5.50733557E+0
5.48141604E+2	9.84617800E-1	5.53323026E+0
5.48133093E+2	9.84672200E-1	5.53756701E+0
5.47927893E+2	9.84738300E-1	5.53755744E+0
5.48441862E+2	9.84633400E-1	5.53749622E+0
5.48450778E+2	9.84621600E-1	5.53750163E+0
5.48399084E+2	9.84629400E-1	5.53745709E+0
5.48480092E+2	9.84575100E-1	5.53744573E+0
5.48484595E+2	9.84738300E-1	5.53745276E+0
5.48506479E+2	9.84586600E-1	5.53744113E+0
5.49258857E+2	9.84582800E-1	5.53736229E+0
5.49917753E+2	9.84757700E-1	5.53737061E+0
5.49950175E+2	9.84590500E-1	5.53736202E+0
5.49599889E+2	9.84664300E-1	5.53733778E+0
5.49762086E+2	9.84645000E-1	5.53734100E+0
5.49585569E+2	9.84598400E-1	5.53733832E+0
5.48901838E+2	9.84695500E-1	5.53736636E+0
5.48764092E+2	9.84765400E-1	5.53733438E+0
5.49050526E+2	9.84571100E-1	5.53730263E+0
5.48677905E+2	9.84753800E-1	5.53732137E+0
5.48116295E+2	9.84742200E-1	5.53728577E+0
5.48006783E+2	9.84730500E-1	5.53724955E+0
5.48166015E+2	9.84742200E-1	5.53728890E+0
5.47831570E+2	9.84734300E-1	5.53725491E+0
5.47353490E+2	9.84730500E-1	5.53727795E+0
5.47382894E+2	9.84711100E-1	5.53725290E+0
5.47939506E+2	9.84680000E-1	5.53725550E+0
5.48011779E+2	9.84594400E-1	5.53722710E+0
5.48591221E+2	9.84757700E-1	5.53722746E+0
5.49380366E+2	9.84742200E-1	5.53726457E+0
5.50367372E+2	9.84722700E-1	5.53720532E+0
